ALV-5000/E-WIN Data
Date :	"22.04.05"
Time :	"11:24:46"
Samplename : 	"124d Lu Es8p2 0.45µm 20mW 633nm 60s +A"
SampMemo(0) : 	""
SampMemo(1) : 	""
SampMemo(2) : 	""
SampMemo(3) : 	""
SampMemo(4) : 	""
SampMemo(5) : 	""
SampMemo(6) : 	""
SampMemo(7) : 	""
SampMemo(8) : 	""
SampMemo(9) : 	""
Temperature [K] :	     293.19951
Viscosity [cp]  :	       0.94000
Refractive Index:	       1.42600
Wavelength [nm] :	     633.00000
Angle [°]       :	      55.00000
Duration [s]    :	        60
Runs            :	         1
Mode            :	"SINGLE AUTO CH0 "
MeanCR0 [kHz]   :	      74.53832
MeanCR1 [kHz]   :	       0.00000

"Correlation"
  2.00000E-004	  9.91397E-001
  4.00000E-004	  9.96243E-001
  6.00000E-004	  9.67660E-001
  8.00000E-004	  9.69221E-001
  1.00000E-003	  9.67240E-001
  1.20000E-003	  9.48350E-001
  1.40000E-003	  9.56617E-001
  1.60000E-003	  9.62409E-001
  1.80000E-003	  9.58297E-001
  2.00000E-003	  9.55612E-001
  2.20000E-003	  9.41373E-001
  2.40000E-003	  9.51936E-001
  2.60000E-003	  9.61748E-001
  2.80000E-003	  9.53466E-001
  3.00000E-003	  9.47089E-001
  3.20000E-003	  9.49015E-001
  3.60000E-003	  9.48745E-001
  4.00000E-003	  9.42526E-001
  4.40000E-003	  9.49735E-001
  4.80000E-003	  9.49263E-001
  5.20000E-003	  9.42181E-001
  5.60000E-003	  9.49563E-001
  6.00000E-003	  9.45542E-001
  6.40000E-003	  9.49945E-001
  7.20000E-003	  9.43598E-001
  8.00000E-003	  9.41501E-001
  8.80000E-003	  9.42491E-001
  9.60000E-003	  9.40278E-001
  1.04000E-002	  9.41317E-001
  1.12000E-002	  9.36276E-001
  1.20000E-002	  9.36062E-001
  1.28000E-002	  9.36577E-001
  1.44000E-002	  9.33695E-001
  1.60000E-002	  9.29417E-001
  1.76000E-002	  9.26633E-001
  1.92000E-002	  9.24013E-001
  2.08000E-002	  9.22850E-001
  2.24000E-002	  9.20399E-001
  2.40000E-002	  9.16958E-001
  2.56000E-002	  9.15218E-001
  2.88000E-002	  9.11653E-001
  3.20000E-002	  9.04445E-001
  3.52000E-002	  8.99740E-001
  3.84000E-002	  8.92979E-001
  4.16000E-002	  8.88906E-001
  4.48000E-002	  8.83301E-001
  4.80000E-002	  8.79229E-001
  5.12000E-002	  8.70776E-001
  5.76000E-002	  8.62568E-001
  6.40000E-002	  8.53197E-001
  7.04000E-002	  8.44184E-001
  7.68000E-002	  8.32151E-001
  8.32000E-002	  8.23666E-001
  8.96000E-002	  8.15566E-001
  9.60000E-002	  8.05179E-001
  1.02400E-001	  7.96086E-001
  1.15200E-001	  7.78184E-001
  1.28000E-001	  7.59374E-001
  1.40800E-001	  7.41944E-001
  1.53600E-001	  7.26159E-001
  1.66400E-001	  7.09283E-001
  1.79200E-001	  6.92592E-001
  1.92000E-001	  6.78396E-001
  2.04800E-001	  6.62483E-001
  2.30400E-001	  6.32833E-001
  2.56000E-001	  6.02888E-001
  2.81600E-001	  5.76216E-001
  3.07200E-001	  5.49877E-001
  3.32800E-001	  5.25686E-001
  3.58400E-001	  5.01731E-001
  3.84000E-001	  4.79349E-001
  4.09600E-001	  4.58666E-001
  4.60800E-001	  4.18719E-001
  5.12000E-001	  3.82327E-001
  5.63200E-001	  3.50088E-001
  6.14400E-001	  3.19899E-001
  6.65600E-001	  2.92563E-001
  7.16800E-001	  2.67815E-001
  7.68000E-001	  2.44309E-001
  8.19200E-001	  2.23764E-001
  9.21600E-001	  1.85675E-001
  1.02400E+000	  1.54286E-001
  1.12640E+000	  1.29159E-001
  1.22880E+000	  1.07262E-001
  1.33120E+000	  8.98645E-002
  1.43360E+000	  7.56573E-002
  1.53600E+000	  6.45184E-002
  1.63840E+000	  5.43351E-002
  1.84320E+000	  3.67736E-002
  2.04800E+000	  2.57814E-002
  2.25280E+000	  1.84281E-002
  2.45760E+000	  1.27337E-002
  2.66240E+000	  7.76448E-003
  2.86720E+000	  3.73467E-003
  3.07200E+000	  1.53790E-003
  3.22560E+000	  8.06117E-004
  3.63520E+000	  2.34456E-004
  4.04480E+000	  9.68113E-004
  4.45440E+000	  2.20279E-003
  4.86400E+000	  1.76036E-003
  5.27360E+000	 -3.17067E-004
  5.68320E+000	 -2.98475E-003
  6.09280E+000	 -5.30375E-003
  6.50240E+000	 -4.07191E-003
  7.32160E+000	 -1.47898E-003
  8.14080E+000	  1.08264E-003
  8.96000E+000	  5.09074E-004
  9.77920E+000	 -1.75989E-003
  1.05984E+001	 -4.75516E-004
  1.14176E+001	 -1.26653E-003
  1.22368E+001	 -2.01334E-003
  1.30560E+001	  4.50283E-004
  1.46944E+001	  2.45945E-003
  1.63328E+001	 -8.48680E-004
  1.79712E+001	 -1.30134E-003
  1.96096E+001	 -2.80047E-003
  2.12480E+001	 -2.28696E-004
  2.28864E+001	  3.30313E-003
  2.45248E+001	  4.19249E-003
  2.61632E+001	 -1.93600E-003
  2.94400E+001	 -1.35685E-003
  3.27168E+001	  1.42369E-005
  3.59936E+001	 -3.61253E-003
  3.92704E+001	 -1.11671E-003
  4.25472E+001	 -9.00280E-005
  4.58240E+001	 -5.53966E-004
  4.91008E+001	 -3.11858E-003
  5.23776E+001	  1.12494E-003
  5.89312E+001	  1.11639E-003
  6.54848E+001	 -4.50340E-004
  7.20384E+001	  6.83863E-004
  7.85920E+001	 -2.14219E-003
  8.51456E+001	 -2.00123E-003
  9.16992E+001	  1.27367E-003
  9.82528E+001	  8.28144E-004
  1.04806E+002	 -2.42109E-004
  1.17914E+002	 -7.46607E-004
  1.31021E+002	  5.59192E-004
  1.44128E+002	 -8.83910E-004
  1.57235E+002	  8.65152E-004
  1.70342E+002	  1.13039E-003
  1.83450E+002	 -1.04249E-003
  1.96557E+002	  4.36569E-004
  2.09664E+002	  5.31452E-004
  2.35878E+002	 -1.53095E-003
  2.62093E+002	 -4.59770E-004
  2.88307E+002	 -2.96756E-004
  3.14522E+002	 -1.70194E-003
  3.40736E+002	 -1.54724E-003
  3.66950E+002	 -8.58716E-005
  3.93165E+002	  1.32039E-003
  4.19379E+002	  8.34947E-004
  4.71808E+002	 -5.81003E-004
  5.24237E+002	 -3.69324E-004
  5.76666E+002	  1.57466E-003
  6.29094E+002	  3.63548E-004
  6.81523E+002	  7.48004E-005
  7.33952E+002	 -1.20950E-004
  7.86381E+002	 -2.72255E-004
  8.38810E+002	 -3.16583E-004
  9.43667E+002	  6.20899E-004
  1.04852E+003	 -3.76282E-004
  1.15338E+003	 -3.58309E-004
  1.25824E+003	  3.03063E-004
  1.36310E+003	  2.05439E-004
  1.46796E+003	 -9.27297E-005
  1.57281E+003	  7.00640E-005
  1.67767E+003	 -3.80451E-004
  1.88739E+003	  4.45651E-006
  2.09710E+003	  3.06719E-004
  2.30682E+003	  1.80924E-005
  2.51653E+003	 -8.73176E-005
  2.72625E+003	  3.67222E-004
  2.93596E+003	 -3.56798E-004
  3.14568E+003	  5.74643E-005
  3.35539E+003	  2.67872E-004
  3.77482E+003	  1.14560E-004
  4.19425E+003	 -3.21161E-005
  4.61368E+003	  1.03136E-004
  5.03311E+003	 -5.52510E-004
  5.45254E+003	  8.79963E-005
  5.87197E+003	 -3.12580E-005
  6.29140E+003	  4.70374E-006
  6.71083E+003	 -8.62151E-005
  7.54970E+003	  1.17239E-004
  8.38856E+003	 -4.43683E-004
  9.22742E+003	  1.38041E-005
  1.00663E+004	  1.14886E-004
  1.09051E+004	 -2.46337E-004
  1.17440E+004	  7.66115E-005
  1.25829E+004	  4.91645E-005

"Count Rate"
       0.23438	      76.63967
       0.46875	      70.79224
       0.70313	      83.97669
       0.93750	      76.83601
       1.17188	      74.16838
       1.40625	      76.27261
       1.64063	      75.97383
       1.87500	      76.49455
       2.10938	      76.34516
       2.34375	      71.69283
       2.57813	      75.52567
       2.81250	      76.05492
       3.04688	      76.26407
       3.28125	      74.20679
       3.51563	      69.34533
       3.75000	      71.34711
       3.98438	      83.13159
       4.21875	      71.61174
       4.45313	      75.25250
       4.68750	      76.10614
       4.92188	      69.10204
       5.15625	      71.44955
       5.39063	      80.11825
       5.62500	      70.07945
       5.85938	      78.94022
       6.09375	      76.33662
       6.32813	      81.01030
       6.56250	      72.75562
       6.79688	      72.91780
       7.03125	      73.09707
       7.26563	      77.77501
       7.50000	      68.19292
       7.73438	      71.49223
       7.96875	      75.94395
       8.20313	      71.53064
       8.43750	      74.24948
       8.67188	      79.90484
       8.90625	      67.59537
       9.14063	      81.25785
       9.37500	      82.21393
       9.60938	      76.96832
       9.84375	      82.27368
      10.07813	      74.99641
      10.31250	      74.68484
      10.54688	      81.47980
      10.78125	      64.64605
      11.01563	      77.63416
      11.25000	      74.74459
      11.48438	      74.76167
      11.71875	      76.67809
      11.95313	      72.50806
      12.18750	      79.65302
      12.42188	      76.62686
      12.65625	      79.64874
      12.89063	      72.79403
      13.12500	      71.88063
      13.35938	      80.68165
      13.59375	      75.45311
      13.82813	      72.03856
      14.06250	      69.41362
      14.29688	      71.80380
      14.53125	      74.09583
      14.76563	      71.82088
      15.00000	      75.74761
      15.23438	      74.28362
      15.46875	      70.39957
      15.70313	      81.79565
      15.93750	      74.97080
      16.17188	      73.87815
      16.40625	      74.77020
      16.64063	      68.40633
      16.87500	      82.71758
      17.10938	      67.14721
      17.34375	      68.26547
      17.57813	      70.82212
      17.81250	      69.61422
      18.04688	      75.06470
      18.28125	      88.31744
      18.51563	      72.13673
      18.75000	      73.16536
      18.98438	      71.68003
      19.21875	      72.03002
      19.45313	      73.05438
      19.68750	      67.14294
      19.92188	      75.46165
      20.15625	      71.19345
      20.39063	      82.32917
      20.62500	      79.72557
      20.85938	      66.48991
      21.09375	      71.77393
      21.32813	      78.21890
      21.56250	      76.47748
      21.79688	      71.38126
      22.03125	      72.40562
      22.26563	      69.82763
      22.50000	      73.66901
      22.73438	      77.93719
      22.96875	      67.58683
      23.20313	      77.93293
      23.43750	      77.13905
      23.67188	      70.63859
      23.90625	      68.18011
      24.14063	      75.47872
      24.37500	      75.32933
      24.60938	      69.82763
      24.84375	      73.21658
      25.07813	      76.68235
      25.31250	      78.38963
      25.54688	      70.45079
      25.78125	      72.44403
      26.01563	      85.67117
      26.25000	      69.72092
      26.48438	      64.44544
      26.71875	      71.74832
      26.95313	      72.92634
      27.18750	      71.14223
      27.42188	      70.84346
      27.65625	      74.99641
      27.89063	      74.01900
      28.12500	      72.84525
      28.35938	      68.17584
      28.59375	      66.41734
      28.82813	      78.94022
      29.06250	      82.36758
      29.29688	      70.28433
      29.53125	      76.98539
      29.76563	      75.45311
      30.00000	      71.67149
      30.23438	      78.41524
      30.46875	      72.71720
      30.70313	      65.63627
      30.93750	      74.01046
      31.17188	      73.75437
      31.40625	      68.12463
      31.64063	      77.76647
      31.87500	      73.70315
      32.10938	      71.80380
      32.34375	      80.21214
      32.57813	      75.38055
      32.81250	      73.27633
      33.04688	      81.71882
      33.28125	      85.20166
      33.51563	      75.22263
      33.75000	      83.25536
      33.98438	      70.74529
      34.21875	      78.95303
      34.45313	      84.95837
      34.68750	      72.75134
      34.92188	      76.70369
      35.15625	      78.77377
      35.39063	      79.87923
      35.62500	      75.97383
      35.85938	      84.95411
      36.09375	      73.75437
      36.32813	      74.18546
      36.56250	      73.86108
      36.79688	      75.52567
      37.03125	      72.27757
      37.26563	      79.62313
      37.50000	      69.31972
      37.73438	      72.92207
      37.96875	      75.35068
      38.20313	      76.57137
      38.43750	      64.85519
      38.67188	      70.10080
      38.90625	      74.71471
      39.14063	      86.35835
      39.37500	      73.75864
      39.60938	      76.70369
      39.84375	      65.18811
      40.07813	      78.09085
      40.31250	      75.23970
      40.54688	      75.27811
      40.78125	      77.80489
      41.01563	      70.18616
      41.25000	      76.89576
      41.48438	      75.18421
      41.71875	      67.01489
      41.95313	      77.62135
      42.18750	      71.04833
      42.42188	      67.49720
      42.65625	      77.82623
      42.89063	      78.15061
      43.12500	      73.13548
      43.35938	      89.04304
      43.59375	      72.78976
      43.82813	      64.33020
      44.06250	      76.55857
      44.29688	      62.16623
      44.53125	      71.13370
      44.76563	      79.34997
      45.00000	      71.21053
      45.23438	      68.79900
      45.46875	      76.37077
      45.70313	      72.64891
      45.93750	      80.89079
      46.17188	      80.96761
      46.40625	      64.68019
      46.64063	      86.02542
      46.87500	      79.36704
      47.10938	      70.01970
      47.34375	      75.02629
      47.57813	      80.10117
      47.81250	      63.06681
      48.04688	      75.76469
      48.28125	      68.57705
      48.51563	      79.34997
      48.75000	      72.63610
      48.98438	      79.43961
      49.21875	      78.85913
      49.45313	      75.86713
      49.68750	      78.85059
      49.92188	      67.59537
      50.15625	      82.51270
      50.39063	      73.09280
      50.62500	      69.96848
      50.85938	      75.03909
      51.09375	      65.94358
      51.32813	      72.55927
      51.56250	      66.43442
      51.79688	      71.48796
      52.03125	      69.02522
      52.26563	      78.89327
      52.50000	      72.55074
      52.73438	      82.85842
      52.96875	      80.45116
      53.20313	      71.67576
      53.43750	      71.12943
      53.67188	      77.74086
      53.90625	      81.14261
      54.14063	      67.76183
      54.37500	      69.70812
      54.60938	      74.38179
      54.84375	      75.00068
      55.07813	      66.31064
      55.31250	      78.13354
      55.54688	      72.02148
      55.78125	      72.59342
      56.01563	      69.10204
      56.25000	      76.37931
      56.48438	      69.45630
      56.71875	      69.50751
      56.95313	      77.89452
      57.18750	      87.99306
      57.42188	      73.19097
      57.65625	      70.67274
      57.89063	      69.77641
      58.12500	      79.97313
      58.35938	      89.31620
      58.59375	      77.99696
      58.82813	      73.55803
      59.06250	      75.36774
      59.29688	      69.69105
      59.53125	      72.00441
      59.76563	      79.32863
